File: output2/Th_spectral_efficiency_Glass_BK7_Ag_80.0_S_300.0_400.0_50000_rays.txt
# #wavelength(nm) efficiency_Th_absorbed
300 0.097973
302 0.098679
304 0.099526
306 0.098971
308 0.098127
310 0.097733
312 0.099314
314 0.100444
316 0.101649
318 0.105092
320 0.110547
322 0.113591
324 0.117224
326 0.121972
328 0.127664
330 0.135910
332 0.137968
334 0.141275
336 0.143769
338 0.145877
340 0.149824
342 0.151742
344 0.152852
346 0.154228
348 0.155907
350 0.157061
352 0.158025
354 0.158768
356 0.159389
358 0.160380
360 0.161829
362 0.161584
364 0.162876
366 0.162785
368 0.163709
370 0.163292
372 0.164625
374 0.164303
376 0.164888
378 0.164660
380 0.165103
382 0.165245
384 0.165534
386 0.165843
388 0.166070
390 0.166568
392 0.166381
394 0.166554
396 0.165967
398 0.167790
400 0.167593