File: output2/Th_spectral_efficiency_Glass_BK7_Ag_45.0_P_300.0_400.0_50000_rays.txt
# #wavelength(nm) efficiency_Th_absorbed
300 0.020960
302 0.020246
304 0.018955
306 0.017474
308 0.016908
310 0.016580
312 0.017304
314 0.019696
316 0.022569
318 0.028871
320 0.039965
322 0.073266
324 0.126423
326 0.192529
328 0.274299
330 0.373655
332 0.404460
334 0.435142
336 0.469456
338 0.501852
340 0.534058
342 0.544512
344 0.556976
346 0.569922
348 0.582928
350 0.592386
352 0.598761
354 0.605925
356 0.610562
358 0.617121
360 0.620638
362 0.628160
364 0.632570
366 0.634055
368 0.638223
370 0.639350
372 0.644029
374 0.645473
376 0.646138
378 0.646818
380 0.650492
382 0.650251
384 0.654727
386 0.653229
388 0.657305
390 0.658084
392 0.659191
394 0.661511
396 0.660007
398 0.663574
400 0.662610