File: output2/Th_spectral_efficiency_Glass_BK7_Ag_300_400_45_P.txt
# #wavelength(nm) efficiency_Th_absorbed
300 0.020147
302 0.019870
304 0.019470
306 0.018024
308 0.017471
310 0.015485
312 0.018203
314 0.019935
316 0.023147
318 0.029326
320 0.039267
322 0.075686
324 0.124288
326 0.192261
328 0.275954
330 0.373427
332 0.404227
334 0.441381
336 0.466878
338 0.500716
340 0.533766
342 0.547101
344 0.556799
346 0.570157
348 0.581037
350 0.593949
352 0.602300
354 0.605145
356 0.611845
358 0.616613
360 0.622540
362 0.627151
364 0.631473
366 0.634122
368 0.637261
370 0.640513
372 0.642375
374 0.643605
376 0.646390
378 0.649389
380 0.649643
382 0.655375
384 0.653720
386 0.653587
388 0.660067
390 0.656620
392 0.662211
394 0.662914
396 0.662870
398 0.662312
400 0.664912