File: output2/Th_spectral_efficiency_Glass_BK7_Ag_420_1000_45_S.txt
# #wavelength(nm) efficiency_Th_absorbed
420 0.679256
440 0.683598
460 0.686069
480 0.687398
500 0.690773
520 0.693399
540 0.692700
560 0.693090
580 0.692265
600 0.694110
620 0.695731
640 0.693288
660 0.695422
680 0.694695
700 0.696860
720 0.696226
740 0.697302
760 0.693895
780 0.695985
800 0.695144
820 0.695237
840 0.696080
860 0.697604
880 0.696026
900 0.696499
920 0.697892
940 0.696281
960 0.699571
980 0.697694
1000 0.698265