File: output2/Th_spectral_efficiency_Glass_BK7_Ag_300_400_80_P.txt
# #wavelength(nm) efficiency_Th_absorbed
300 0.041628
302 0.041203
304 0.041342
306 0.040745
308 0.041044
310 0.041251
312 0.041475
314 0.042002
316 0.043437
318 0.046432
320 0.053425
322 0.059953
324 0.068248
326 0.078577
328 0.091137
330 0.108361
332 0.112339
334 0.117114
336 0.123100
338 0.127914
340 0.133660
342 0.136427
344 0.138082
346 0.141238
348 0.144155
350 0.146851
352 0.148367
354 0.149073
356 0.150866
358 0.151726
360 0.151919
362 0.154091
364 0.154626
366 0.155301
368 0.156696
370 0.156662
372 0.158104
374 0.158210
376 0.158489
378 0.159327
380 0.159245
382 0.159720
384 0.160054
386 0.160015
388 0.161108
390 0.161025
392 0.161552
394 0.161424
396 0.161235
398 0.161474
400 0.162649