File: output2/Th_spectral_efficiency_Glass_BK7_Ag_420_1000_80_P.txt
# #wavelength(nm) efficiency_Th_absorbed
420 0.164014
440 0.165037
460 0.165986
480 0.166397
500 0.167200
520 0.168010
540 0.168026
560 0.168196
580 0.168219
600 0.168919
620 0.168955
640 0.168991
660 0.169032
680 0.169009
700 0.169253
720 0.169227
740 0.170370
760 0.169184
780 0.170355
800 0.170798
820 0.170251
840 0.170096
860 0.169454
880 0.170025
900 0.170104
920 0.170421
940 0.170035
960 0.170010
980 0.170911
1000 0.170810