File: output2/Th_spectral_efficiency_Glass_BK7_Ag_420_1000_80_S.txt
# #wavelength(nm) efficiency_Th_absorbed
420 0.167843
440 0.168317
460 0.169130
480 0.170037
500 0.169356
520 0.170574
540 0.170342
560 0.170856
580 0.170973
600 0.170535
620 0.171509
640 0.171235
660 0.171098
680 0.171136
700 0.171702
720 0.171705
740 0.171066
760 0.171046
780 0.171001
800 0.171477
820 0.171905
840 0.171103
860 0.171471
880 0.171427
900 0.171684
920 0.171142
940 0.171999
960 0.171750
980 0.171420
1000 0.172015