File: output2/Th_spectral_efficiency_Glass_BK7_Ag_45.0_S_300.0_400.0_50000_rays.txt
# #wavelength(nm) efficiency_Th_absorbed
300 0.093816
302 0.093582
304 0.094688
306 0.093903
308 0.092611
310 0.091779
312 0.095965
314 0.105019
316 0.119730
318 0.141434
320 0.178216
322 0.225781
324 0.280137
326 0.333237
328 0.397618
330 0.467828
332 0.488483
334 0.513118
336 0.532243
338 0.555766
340 0.577538
342 0.586893
344 0.594684
346 0.603772
348 0.612426
350 0.623215
352 0.627490
354 0.633033
356 0.636668
358 0.641365
360 0.643435
362 0.647083
364 0.649404
366 0.654182
368 0.657226
370 0.659679
372 0.659682
374 0.659255
376 0.663664
378 0.659506
380 0.663815
382 0.667393
384 0.667585
386 0.666275
388 0.669130
390 0.669780
392 0.670659
394 0.671900
396 0.673962
398 0.672860
400 0.674872