File: output2/Th_spectral_efficiency_Glass_BK7_Ag_300_400_80_S.txt
# #wavelength(nm) efficiency_Th_absorbed
300 0.097850
302 0.097894
304 0.098976
306 0.098346
308 0.098193
310 0.098514
312 0.099227
314 0.100297
316 0.101240
318 0.104887
320 0.109721
322 0.113744
324 0.116888
326 0.121913
328 0.127920
330 0.134934
332 0.137287
334 0.141418
336 0.143728
338 0.145501
340 0.149306
342 0.151170
344 0.151967
346 0.154202
348 0.155501
350 0.157202
352 0.158564
354 0.159289
356 0.159755
358 0.160475
360 0.161382
362 0.161254
364 0.163261
366 0.162926
368 0.162950
370 0.164609
372 0.163859
374 0.164318
376 0.164020
378 0.165161
380 0.164680
382 0.165867
384 0.165596
386 0.166434
388 0.165863
390 0.166863
392 0.166154
394 0.166381
396 0.167295
398 0.166911
400 0.166509