File: output2/Th_spectral_efficiency_Glass_BK7_Ag_420_1000_45_P.txt
# #wavelength(nm) efficiency_Th_absorbed
420 0.671901
440 0.677473
460 0.681283
480 0.681895
500 0.684971
520 0.686662
540 0.687153
560 0.689536
580 0.690718
600 0.690193
620 0.690898
640 0.690680
660 0.692712
680 0.692779
700 0.694815
720 0.693590
740 0.692098
760 0.693706
780 0.695062
800 0.695188
820 0.696763
840 0.694065
860 0.697136
880 0.693861
900 0.693828
920 0.691766
940 0.696860
960 0.694844
980 0.695338
1000 0.694928