File: output2/Th_spectral_efficiency_Glass_BK7_Ag_80.0_P_300.0_400.0_50000_rays.txt
# #wavelength(nm) efficiency_Th_absorbed
300 0.041798
302 0.041748
304 0.040981
306 0.041304
308 0.041417
310 0.041515
312 0.040618
314 0.041311
316 0.043165
318 0.046486
320 0.053516
322 0.059869
324 0.068227
326 0.078593
328 0.091292
330 0.107697
332 0.111559
334 0.117903
336 0.122333
338 0.128397
340 0.133992
342 0.136460
344 0.139254
346 0.141584
348 0.144469
350 0.147049
352 0.148711
354 0.149880
356 0.150697
358 0.151788
360 0.153449
362 0.154662
364 0.155407
366 0.155653
368 0.156528
370 0.156702
372 0.156756
374 0.158168
376 0.158507
378 0.158692
380 0.159454
382 0.159917
384 0.160258
386 0.160450
388 0.161556
390 0.160821
392 0.162024
394 0.161589
396 0.162133
398 0.162551
400 0.162387