File: output2/Th_spectral_efficiency_Glass_BK7_Ag_300_400_45_S.txt
# #wavelength(nm) efficiency_Th_absorbed
300 0.093914
302 0.092906
304 0.094973
306 0.092897
308 0.093838
310 0.091542
312 0.096728
314 0.104702
316 0.120082
318 0.141372
320 0.177784
322 0.227244
324 0.279091
326 0.336270
328 0.399719
330 0.469302
332 0.489296
334 0.514167
336 0.533437
338 0.553895
340 0.574878
342 0.585222
344 0.595609
346 0.604504
348 0.614815
350 0.624358
352 0.625942
354 0.630703
356 0.636102
358 0.638859
360 0.646822
362 0.645485
364 0.651810
366 0.652175
368 0.656604
370 0.656183
372 0.658655
374 0.660974
376 0.662184
378 0.663396
380 0.663767
382 0.665915
384 0.666562
386 0.668013
388 0.670846
390 0.670723
392 0.673002
394 0.673983
396 0.673009
398 0.674544
400 0.674835